ENVI ASCII Plot File [Fri Sep 11 13:55:17 2015]
Column 1: Wavelength
Column 2: Sea water ( seawater.doc)~~2
   9.000270  0.015725
   9.015920  0.015496
   9.031630  0.015347
   9.047390  0.015388
   9.063210  0.015281
   9.079070  0.015200
   9.095000  0.015281
   9.110990  0.015234
   9.127030  0.015100
   9.143120  0.015186
   9.159280  0.015215
   9.175490  0.015124
   9.191760  0.015195
   9.208090  0.015288
   9.224470  0.014998
   9.240910  0.014895
   9.257420  0.014827
   9.273980  0.014758
   9.290600  0.014790
   9.307280  0.014978
   9.324020  0.014900
   9.340820  0.014692
   9.357680  0.014622
   9.374600  0.014663
   9.391590  0.014375
   9.408630  0.014363
   9.425740  0.014468
   9.442910  0.014348
   9.460140  0.014163
   9.477420  0.014243
   9.494780  0.014133
   9.512200  0.013916
   9.529690  0.013765
   9.547240  0.013823
   9.564860  0.013840
   9.582540  0.013855
   9.600280  0.013625
   9.618090  0.013594
   9.635970  0.013647
   9.653920  0.013555
   9.671930  0.013286
   9.690010  0.013159
   9.708150  0.013186
   9.726370  0.013184
   9.744650  0.012998
   9.763000  0.012905
   9.781420  0.012786
   9.799920  0.012839
   9.818480  0.012795
   9.837110  0.012681
   9.855810  0.012488
   9.874580  0.012485
   9.893430  0.012324
   9.912340  0.012234
   9.931320  0.012373
   9.950390  0.012480
   9.969520  0.012168
   9.988730  0.011926
  10.008020  0.011853
  10.027370  0.011921
  10.046810  0.012012
  10.066320  0.011782
  10.085900  0.011421
  10.105560  0.011475
  10.125300  0.011462
  10.145120  0.011384
  10.165010  0.011326
  10.184980  0.011438
  10.205030  0.011248
  10.225150  0.011064
  10.245360  0.010947
  10.265640  0.010984
  10.286010  0.010823
  10.306460  0.010708
  10.326990  0.010627
  10.347610  0.010552
  10.368300  0.010400
  10.389080  0.010322
  10.409940  0.010352
  10.430890  0.010422
  10.451920  0.010207
  10.473040  0.010234
  10.494240  0.010234
  10.515520  0.010051
  10.536900  0.009961
  10.558360  0.010051
  10.579910  0.009900
  10.601540  0.009773
  10.623270  0.009697
  10.645080  0.009712
  10.666990  0.009607
  10.688980  0.009448
  10.711060  0.009436
  10.733230  0.009568
  10.755500  0.009380
  10.777860  0.009285
  10.800310  0.009343
  10.822860  0.009346
  10.845500  0.009243
  10.868240  0.009307
  10.891080  0.009204
  10.914000  0.009087
  10.937030  0.009180
  10.960150  0.009209
  10.983370  0.009053
  11.006690  0.009075
  11.030110  0.009048
  11.053630  0.009194
  11.077250  0.009248
  11.100970  0.009207
  11.124790  0.009080
  11.148720  0.009136
  11.172750  0.009048
  11.196880  0.009038
  11.221120  0.009119
  11.245460  0.009373
  11.269900  0.009556
  11.294450  0.009582
  11.319110  0.009448
  11.343870  0.009436
  11.368750  0.009504
  11.393740  0.009683
  11.418840  0.009763
  11.444040  0.009849
  11.469360  0.009944
  11.494790  0.010200
  11.520340  0.010190
  11.546000  0.010291
  11.571770  0.010547
  11.597660  0.010703
  11.623660  0.010818
  11.649780  0.011008
  11.676020  0.011152
  11.702380  0.011562
  11.728860  0.011675
  11.755450  0.011665
  11.782170  0.011992
  11.809010  0.012256
  11.835970  0.012378
  11.863060  0.012624
  11.890270  0.012620
  11.917590  0.012778
  11.945050  0.013037
  11.972640  0.013352
  12.000350  0.013691
  12.028190  0.014211
  12.056170  0.014604
  12.084270  0.014841
  12.112510  0.015015
  12.140870  0.015239
  12.169370  0.015435
  12.198010  0.015781
  12.226780  0.016111
  12.255680  0.016304
  12.284730  0.016479
  12.313910  0.017095
  12.343230  0.017344
  12.372690  0.017581
  12.402290  0.017827
  12.432030  0.018303
  12.461910  0.018784
  12.491940  0.019043
  12.522120  0.019189
  12.552440  0.019670
  12.582910  0.020034
  12.613510  0.020469
  12.644270  0.020784
  12.675190  0.021338
  12.706250  0.021724
  12.737470  0.022178
  12.768850  0.022561
  12.800380  0.022881
  12.832060  0.023179
  12.863900  0.023599
  12.895900  0.024065
  12.928060  0.024514
  12.960390  0.024548
  12.992870  0.025039
  13.025510  0.025649
  13.058320  0.026206
  13.091300  0.026497
  13.124430  0.026904
  13.157740  0.027224
  13.191220  0.027595
  13.224870  0.027869
  13.258700  0.028372
  13.292690  0.028914
  13.326870  0.029409
  13.361210  0.029548
  13.395740  0.030049
  13.430440  0.030415
  13.465330  0.030898
  13.500400  0.031182
  13.535650  0.031531
  13.571080  0.031958
  13.606700  0.032519
  13.642510  0.032678
  13.678510  0.033098
  13.714690  0.033667
  13.751070  0.034392
  13.787650  0.034790
  13.824410  0.035347
  13.861380  0.035698
  13.898250  0.036062
  13.935900  0.036145
  13.973450  0.036462
  14.011210  0.036548